Data from wl_540_HR2001601__0__00400.txt Node

Date: Wed Oct 18 18:59:33 CEST 2023
User: isaza
Spectrometer: HR200160
Trigger mode: 0
Integration Time (sec): 1.000000E-1
Scans to average: 1
Electric dark correction enabled: true
Nonlinearity correction enabled: false
Boxcar width: 0
XAxis mode: Wavelengths
Number of Pixels in Spectrum: 2110
>>>>>Begin Spectral Data<<<<<
184.037	126.92
184.393	79.92
184.749	-53.08
185.104	-20.08
185.46	76.92
185.815	-29.08
186.17	71.92
186.526	-2.08
186.881	-74.08
187.237	-96.08
187.592	-67.08
187.947	-14.08
188.303	-128.08
188.658	-19.08
189.013	61.92
189.369	-34.08
189.724	-77.08
190.079	10.92
190.435	-69.08
190.79	-73.08
191.145	-128.08
191.5	-132.08
191.855	-68.08
192.21	-132.08
192.566	-118.08
192.921	-25.08
193.276	-99.08
193.631	455.92
193.986	-53.08
194.341	-159.08
194.696	-48.08
195.051	-65.08
195.406	-165.08
195.761	333.92
196.116	-80.08
196.471	-63.08
196.826	-37.08
197.181	-39.08
197.535	-141.08
197.89	-91.08
198.245	-124.08
198.6	-57.08
198.955	-26.08
199.31	-105.08
199.664	-90.08
200.019	-164.08
200.374	-85.08
200.729	-208.08
201.083	-114.08
201.438	-69.08
201.793	-226.08
202.147	-6.08
202.502	-156.08
202.856	-42.08
203.211	-212.08
203.566	-114.08
203.92	-95.08
204.275	-73.08
204.629	-189.08
204.984	-30.08
205.338	397.92
205.693	-128.08
206.047	-154.08
206.401	-181.08
206.756	-136.08
207.11	-207.08
207.465	-169.08
207.819	99.92
208.173	-178.08
208.528	-202.08
208.882	-198.08
209.236	-73.08
209.591	-168.08
209.945	-188.08
210.299	-71.08
210.653	-109.08
211.007	-83.08
211.362	-171.08
211.716	-69.08
212.07	-157.08
212.424	-153.08
212.778	-199.08
213.132	-192.08
213.486	-165.08
213.84	-212.08
214.194	-183.08
214.548	-205.08
214.902	402.92
215.256	-256.08
215.61	-279.08
215.964	-230.08
216.318	-268.08
216.672	-110.08
217.026	-239.08
217.38	-85.08
217.734	-37.08
218.087	-205.08
218.441	-102.08
218.795	25.92
219.149	-159.08
219.503	-216.08
219.856	-160.08
220.21	-151.08
220.564	-199.08
220.917	-73.08
221.271	-235.08
221.625	-88.08
221.978	-169.08
222.332	-98.08
222.685	-158.08
223.039	285.92
223.393	-138.08
223.746	-257.08
224.1	-176.08
224.453	-284.08
224.807	-193.08
225.16	-135.08
225.514	222.92
225.867	-164.08
226.22	5.92
226.574	-84.08
226.927	-81.08
227.281	342.92
227.634	-138.08
227.987	-144.08
228.341	-200.08
228.694	-167.08
229.047	-214.08
229.4	-215.08
229.754	-308.08
230.107	-100.08
230.46	-202.08
230.813	312.92
231.166	-68.08
231.519	-131.08
231.873	-29.08
232.226	-113.08
232.579	-231.08
232.932	-167.08
233.285	-234.08
233.638	-259.08
233.991	-96.08
234.344	-179.08
234.697	-197.08
235.05	-210.08
235.403	-177.08
235.756	-197.08
236.109	-160.08
236.461	-132.08
236.814	-218.08
237.167	-107.08
237.52	157.92
237.873	-239.08
238.226	-169.08
238.578	-152.08
238.931	-176.08
239.284	-143.08
239.637	-5.08
239.989	-241.08
240.342	-190.08
240.695	-272.08
241.047	-278.08
241.4	-95.08
241.752	57.92
242.105	-253.08
242.458	-120.08
242.81	-221.08
243.163	-188.08
243.515	-197.08
243.868	-168.08
244.22	-177.08
244.573	-203.08
244.925	-150.08
245.278	-110.08
245.63	-231.08
245.982	-128.08
246.335	-185.08
246.687	-136.08
247.039	-109.08
247.392	-153.08
247.744	-166.08
248.096	-235.08
248.449	-230.08
248.801	-79.08
249.153	-35.08
249.505	-129.08
249.857	-177.08
250.21	72.92
250.562	-185.08
250.914	-179.08
251.266	-282.08
251.618	-203.08
251.97	-253.08
252.322	-249.08
252.674	-246.08
253.026	-185.08
253.378	-195.08
253.73	-143.08
254.082	-90.08
254.434	-242.08
254.786	-212.08
255.138	-219.08
255.49	-156.08
255.842	-210.08
256.194	-150.08
256.546	-241.08
256.897	-189.08
257.249	-235.08
257.601	-250.08
257.953	-137.08
258.305	-128.08
258.656	-80.08
259.008	-264.08
259.36	-171.08
259.711	-191.08
260.063	-143.08
260.415	152.92
260.766	-181.08
261.118	-203.08
261.469	-260.08
261.821	-98.08
262.173	-262.08
262.524	-353.08
262.876	51.92
263.227	-209.08
263.579	-118.08
263.93	-223.08
264.282	-206.08
264.633	-178.08
264.984	-241.08
265.336	-167.08
265.687	-11.08
266.038	-188.08
266.39	-223.08
266.741	-209.08
267.092	-262.08
267.444	-265.08
267.795	-205.08
268.146	-272.08
268.497	-173.08
268.849	-217.08
269.2	-56.08
269.551	-161.08
269.902	-244.08
270.253	-193.08
270.604	-168.08
270.955	-230.08
271.306	-114.08
271.658	-195.08
272.009	-148.08
272.36	-140.08
272.711	-253.08
273.062	-254.08
273.413	-155.08
273.763	-83.08
274.114	-195.08
274.465	-112.08
274.816	-247.08
275.167	-155.08
275.518	-286.08
275.869	-132.08
276.22	-68.08
276.57	-171.08
276.921	-128.08
277.272	-199.08
277.623	738.92
277.973	-131.08
278.324	-158.08
278.675	-61.08
279.025	-301.08
279.376	-164.08
279.727	-203.08
280.077	-138.08
280.428	-184.08
280.778	-188.08
281.129	-188.08
281.48	-342.08
281.83	-177.08
282.181	-240.08
282.531	-235.08
282.882	-256.08
283.232	-87.08
283.582	-135.08
283.933	-143.08
284.283	-285.08
284.634	-197.08
284.984	-140.08
285.334	-295.08
285.685	386.92
286.035	-161.08
286.385	-265.08
286.735	-119.08
287.086	-171.08
287.436	-74.08
287.786	-232.08
288.136	-75.08
288.486	-146.08
288.837	-241.08
289.187	69.92
289.537	-220.08
289.887	238.92
290.237	-190.08
290.587	-176.08
290.937	-184.08
291.287	-192.08
291.637	-257.08
291.987	-172.08
292.337	-199.08
292.687	-276.08
293.037	-129.08
293.387	-204.08
293.737	-100.08
294.087	-79.08
294.437	-224.08
294.786	-165.08
295.136	-256.08
295.486	-123.08
295.836	-238.08
296.186	-142.08
296.535	-225.08
296.885	-241.08
297.235	-259.08
297.584	-140.08
297.934	-179.08
298.284	-176.08
298.633	-169.08
298.983	-269.08
299.333	-139.08
299.682	-187.08
300.032	-224.08
300.381	-153.08
300.731	-144.08
301.08	-237.08
301.43	-205.08
301.779	-107.08
302.129	-118.08
302.478	-222.08
302.828	-178.08
303.177	-294.08
303.526	-173.08
303.876	7.92
304.225	-243.08
304.574	-206.08
304.924	-256.08
305.273	-112.08
305.622	-158.08
305.971	-87.08
306.321	-202.08
306.67	-271.08
307.019	-216.08
307.368	-239.08
307.717	-258.08
308.066	274.92
308.416	-145.08
308.765	-185.08
309.114	-182.08
309.463	-266.08
309.812	-209.08
310.161	-97.08
310.51	-159.08
310.859	-258.08
311.208	-143.08
311.557	-113.08
311.906	-134.08
312.255	-187.08
312.604	-225.08
312.952	-70.08
313.301	-255.08
313.65	-121.08
313.999	-274.08
314.348	-195.08
314.696	-32.08
315.045	-200.08
315.394	-182.08
315.743	-200.08
316.091	-130.08
316.44	-212.08
316.789	-154.08
317.137	-217.08
317.486	-175.08
317.835	-235.08
318.183	477.92
318.532	-136.08
318.88	-142.08
319.229	-90.08
319.577	-256.08
319.926	-124.08
320.274	-207.08
320.623	-216.08
320.971	-186.08
321.32	-163.08
321.668	-200.08
322.017	-152.08
322.365	-195.08
322.713	-212.08
323.062	-33.08
323.41	-155.08
323.758	-133.08
324.107	-205.08
324.455	-246.08
324.803	-200.08
325.151	-329.08
325.499	-206.08
325.848	-214.08
326.196	-231.08
326.544	-118.08
326.892	-143.08
327.24	-54.08
327.588	-296.08
327.936	-84.08
328.284	-112.08
328.632	-72.08
328.98	-244.08
329.328	-219.08
329.676	30.92
330.024	-163.08
330.372	-214.08
330.72	-193.08
331.068	-122.08
331.416	-192.08
331.764	-162.08
332.112	-216.08
332.46	-106.08
332.807	-312.08
333.155	-222.08
333.503	-158.08
333.851	20.92
334.198	-213.08
334.546	-247.08
334.894	-249.08
335.242	-168.08
335.589	-213.08
335.937	-140.08
336.285	-243.08
336.632	-250.08
336.98	-153.08
337.327	-182.08
337.675	-85.08
338.022	-237.08
338.37	-78.08
338.717	-266.08
339.065	-226.08
339.412	-171.08
339.76	50.92
340.107	-15.08
340.455	-209.08
340.802	-205.08
341.149	-180.08
341.497	-227.08
341.844	-300.08
342.191	12.92
342.539	-182.08
342.886	-165.08
343.233	-209.08
343.58	-105.08
343.928	-83.08
344.275	-145.08
344.622	-228.08
344.969	-229.08
345.316	-191.08
345.663	-277.08
346.01	-107.08
346.358	-158.08
346.705	-243.08
347.052	114.92
347.399	-129.08
347.746	-102.08
348.093	-91.08
348.44	-153.08
348.787	-163.08
349.134	-152.08
349.48	-151.08
349.827	-181.08
350.174	-265.08
350.521	-105.08
350.868	-193.08
351.215	-144.08
351.562	-189.08
351.908	-206.08
352.255	-198.08
352.602	-151.08
352.949	-234.08
353.295	-142.08
353.642	-246.08
353.989	-121.08
354.335	-163.08
354.682	-272.08
355.029	-167.08
355.375	-220.08
355.722	-111.08
356.068	-235.08
356.415	-177.08
356.761	-249.08
357.108	-167.08
357.454	-88.08
357.801	-175.08
358.147	-159.08
358.494	-228.08
358.84	-282.08
359.186	23.92
359.533	-112.08
359.879	-223.08
360.225	-162.08
360.572	-184.08
360.918	-165.08
361.264	-170.08
361.611	-202.08
361.957	-133.08
362.303	-49.08
362.649	-223.08
362.995	-163.08
363.342	-144.08
363.688	-84.08
364.034	-171.08
364.38	-291.08
364.726	-182.08
365.072	-232.08
365.418	-160.08
365.764	-171.08
366.11	-171.08
366.456	-165.08
366.802	-215.08
367.148	-227.08
367.494	-209.08
367.84	229.92
368.186	-230.08
368.532	-205.08
368.878	-120.08
369.224	-248.08
369.569	-106.08
369.915	-234.08
370.261	-284.08
370.607	-211.08
370.952	-219.08
371.298	-252.08
371.644	-180.08
371.99	-188.08
372.335	206.92
372.681	-152.08
373.027	-168.08
373.372	-80.08
373.718	-148.08
374.063	-97.08
374.409	-84.08
374.754	-186.08
375.1	-248.08
375.445	-169.08
375.791	-146.08
376.136	-198.08
376.482	-80.08
376.827	-113.08
377.173	-139.08
377.518	-122.08
377.863	-196.08
378.209	-234.08
378.554	-151.08
378.899	-125.08
379.245	-127.08
379.59	-245.08
379.935	-218.08
380.281	-203.08
380.626	-192.08
380.971	-134.08
381.316	-246.08
381.661	-273.08
382.006	-175.08
382.352	-148.08
382.697	-203.08
383.042	-104.08
383.387	-190.08
383.732	-158.08
384.077	-105.08
384.422	-270.08
384.767	-214.08
385.112	-208.08
385.457	-232.08
385.802	-199.08
386.147	-142.08
386.492	-257.08
386.836	-204.08
387.181	-233.08
387.526	-8.08
387.871	-75.08
388.216	-155.08
388.561	-103.08
388.905	-59.08
389.25	-93.08
389.595	-182.08
389.94	-212.08
390.284	-142.08
390.629	-107.08
390.974	-153.08
391.318	-46.08
391.663	-154.08
392.007	-127.08
392.352	-188.08
392.697	-153.08
393.041	-198.08
393.386	-186.08
393.73	-225.08
394.075	-135.08
394.419	-184.08
394.763	-162.08
395.108	-222.08
395.452	-201.08
395.797	-90.08
396.141	-203.08
396.485	-203.08
396.83	-275.08
397.174	-176.08
397.518	-239.08
397.863	105.92
398.207	-173.08
398.551	-115.08
398.895	-218.08
399.24	36.92
399.584	-208.08
399.928	-232.08
400.272	-161.08
400.616	-258.08
400.96	-143.08
401.304	-197.08
401.648	-147.08
401.992	-199.08
402.336	-211.08
402.68	-159.08
403.024	547.92
403.368	-213.08
403.712	-221.08
404.056	-204.08
404.4	-212.08
404.744	-146.08
405.088	121.92
405.432	-222.08
405.776	-256.08
406.119	-190.08
406.463	-151.08
406.807	-243.08
407.151	295.92
407.495	-174.08
407.838	-256.08
408.182	-124.08
408.526	486.92
408.869	-154.08
409.213	-192.08
409.557	-209.08
409.9	-246.08
410.244	-181.08
410.587	-224.08
410.931	-154.08
411.274	-215.08
411.618	-89.08
411.961	-198.08
412.305	-97.08
412.648	-203.08
412.992	-111.08
413.335	-191.08
413.679	-263.08
414.022	-81.08
414.365	-138.08
414.709	-161.08
415.052	-165.08
415.395	-242.08
415.739	-252.08
416.082	-291.08
416.425	-249.08
416.768	88.92
417.112	-136.08
417.455	-252.08
417.798	-174.08
418.141	-170.08
418.484	-161.08
418.827	-303.08
419.17	165.92
419.513	-212.08
419.857	-206.08
420.2	-204.08
420.543	-239.08
420.886	-161.08
421.229	-156.08
421.572	-119.08
421.914	-249.08
422.257	-253.08
422.6	-186.08
422.943	395.92
423.286	-198.08
423.629	-185.08
423.972	-244.08
424.315	-178.08
424.657	-195.08
425	-196.08
425.343	-216.08
425.686	-150.08
426.028	-189.08
426.371	-198.08
426.714	-45.08
427.056	-112.08
427.399	-170.08
427.742	-81.08
428.084	-222.08
428.427	-205.08
428.769	-185.08
429.112	-258.08
429.454	-217.08
429.797	-286.08
430.139	-218.08
430.482	-157.08
430.824	-100.08
431.167	-191.08
431.509	-227.08
431.851	-209.08
432.194	-106.08
432.536	-80.08
432.878	-54.08
433.221	267.92
433.563	-13.08
433.905	-137.08
434.248	-105.08
434.59	-116.08
434.932	-209.08
435.274	-109.08
435.616	-217.08
435.959	-112.08
436.301	-241.08
436.643	-295.08
436.985	-199.08
437.327	-207.08
437.669	-296.08
438.011	-185.08
438.353	-65.08
438.695	-185.08
439.037	-164.08
439.379	-228.08
439.721	-304.08
440.063	-217.08
440.405	-239.08
440.747	-273.08
441.089	-182.08
441.43	-266.08
441.772	-192.08
442.114	-162.08
442.456	-200.08
442.798	-232.08
443.139	-207.08
443.481	-143.08
443.823	430.92
444.165	-208.08
444.506	-170.08
444.848	-283.08
445.19	-155.08
445.531	-121.08
445.873	-217.08
446.214	-183.08
446.556	-245.08
446.897	-146.08
447.239	-209.08
447.58	-200.08
447.922	-108.08
448.263	401.92
448.605	-197.08
448.946	-181.08
449.288	-188.08
449.629	-257.08
449.97	-170.08
450.312	-279.08
450.653	-162.08
450.994	-165.08
451.336	-160.08
451.677	-134.08
452.018	-189.08
452.359	-283.08
452.701	-136.08
453.042	-264.08
453.383	-141.08
453.724	-246.08
454.065	-198.08
454.406	-253.08
454.748	-244.08
455.089	-275.08
455.43	-153.08
455.771	-43.08
456.112	-189.08
456.453	-272.08
456.794	-134.08
457.135	-127.08
457.476	-230.08
457.817	-242.08
458.158	-188.08
458.498	-132.08
458.839	-199.08
459.18	-242.08
459.521	-56.08
459.862	-1.08
460.203	-121.08
460.543	211.92
460.884	-220.08
461.225	274.92
461.566	-232.08
461.906	-98.08
462.247	-236.08
462.588	-231.08
462.928	99.92
463.269	-167.08
463.609	-163.08
463.95	-184.08
464.291	-245.08
464.631	-241.08
464.972	-111.08
465.312	-109.08
465.653	-225.08
465.993	-186.08
466.333	-26.08
466.674	-124.08
467.014	-142.08
467.355	-215.08
467.695	-193.08
468.035	-242.08
468.376	-10.08
468.716	-170.08
469.056	-87.08
469.397	-171.08
469.737	-233.08
470.077	-206.08
470.417	-158.08
470.757	-259.08
471.098	-195.08
471.438	-193.08
471.778	-243.08
472.118	572.92
472.458	-154.08
472.798	-213.08
473.138	-191.08
473.478	-215.08
473.818	-151.08
474.158	-217.08
474.498	-176.08
474.838	-29.08
475.178	-251.08
475.518	-120.08
475.858	-175.08
476.198	-141.08
476.538	-77.08
476.878	-224.08
477.217	-139.08
477.557	57.92
477.897	-330.08
478.237	-109.08
478.577	-238.08
478.916	-141.08
479.256	-186.08
479.596	-172.08
479.935	-210.08
480.275	-149.08
480.615	236.92
480.954	-85.08
481.294	-241.08
481.633	-139.08
481.973	-193.08
482.313	-212.08
482.652	-195.08
482.992	-205.08
483.331	-214.08
483.67	-233.08
484.01	545.92
484.349	-233.08
484.689	-152.08
485.028	-194.08
485.367	88.92
485.707	-185.08
486.046	-158.08
486.385	-138.08
486.725	-166.08
487.064	-146.08
487.403	-107.08
487.742	-227.08
488.082	-202.08
488.421	-74.08
488.76	-137.08
489.099	-92.08
489.438	-168.08
489.777	10.92
490.116	-143.08
490.456	-176.08
490.795	61.92
491.134	-291.08
491.473	-180.08
491.812	-199.08
492.151	-198.08
492.49	-234.08
492.828	-174.08
493.167	-89.08
493.506	-173.08
493.845	-238.08
494.184	-108.08
494.523	-128.08
494.862	-230.08
495.2	-104.08
495.539	-166.08
495.878	-243.08
496.217	-155.08
496.555	-152.08
496.894	-146.08
497.233	-124.08
497.571	-54.08
497.91	-187.08
498.249	-245.08
498.587	-233.08
498.926	-137.08
499.264	-109.08
499.603	-243.08
499.942	522.92
500.28	-256.08
500.619	-202.08
500.957	-242.08
501.295	-224.08
501.634	-148.08
501.972	-231.08
502.311	-186.08
502.649	-198.08
502.987	-194.08
503.326	615.92
503.664	-261.08
504.002	-209.08
504.341	-102.08
504.679	-189.08
505.017	-211.08
505.355	-169.08
505.693	-100.08
506.032	101.92
506.37	-216.08
506.708	-285.08
507.046	-103.08
507.384	-222.08
507.722	-183.08
508.06	-74.08
508.398	-229.08
508.736	-128.08
509.074	6.92
509.412	-145.08
509.75	-274.08
510.088	-95.08
510.426	-188.08
510.764	-64.08
511.102	-134.08
511.44	-148.08
511.778	-167.08
512.115	-114.08
512.453	-205.08
512.791	-183.08
513.129	-24.08
513.466	-227.08
513.804	-123.08
514.142	-154.08
514.48	-151.08
514.817	-189.08
515.155	-190.08
515.493	-271.08
515.83	-159.08
516.168	-111.08
516.505	-219.08
516.843	-135.08
517.18	-225.08
517.518	-141.08
517.855	-127.08
518.193	-179.08
518.53	-207.08
518.868	-110.08
519.205	-184.08
519.542	-182.08
519.88	-168.08
520.217	-146.08
520.555	-279.08
520.892	-242.08
521.229	-215.08
521.566	-245.08
521.904	-71.08
522.241	-258.08
522.578	-250.08
522.915	-184.08
523.252	-230.08
523.59	-80.08
523.927	-190.08
524.264	-114.08
524.601	-198.08
524.938	-101.08
525.275	-123.08
525.612	-137.08
525.949	-32.08
526.286	-279.08
526.623	-246.08
526.96	-160.08
527.297	-160.08
527.634	-142.08
527.971	-101.08
528.308	-54.08
528.645	-54.08
528.981	-132.08
529.318	-208.08
529.655	-114.08
529.992	-118.08
530.329	-230.08
530.665	-225.08
531.002	-268.08
531.339	223.92
531.675	-190.08
532.012	-79.08
532.349	-227.08
532.685	-211.08
533.022	-194.08
533.359	-205.08
533.695	-103.08
534.032	-94.08
534.368	-105.08
534.705	15.92
535.041	-67.08
535.378	-74.08
535.714	112.92
536.051	447.92
536.387	391.92
536.723	725.92
537.06	1381.92
537.396	2764.92
537.732	5064.92
538.069	8253.92
538.405	13063.92
538.741	19866.92
539.078	28510.92
539.414	37105.92
539.75	44259.92
540.086	50428.92
540.422	52988.92
540.759	54487.92
541.095	51812.92
541.431	46154.92
541.767	37672.92
542.103	28867.92
542.439	19718.92
542.775	12483.92
543.111	7042.92
543.447	3471.92
543.783	1514.92
544.119	514.92
544.455	41.92
544.791	-8.08
545.127	-27.08
545.463	88.92
545.799	10.92
546.134	-154.08
546.47	-215.08
546.806	-171.08
547.142	-170.08
547.477	-147.08
547.813	-146.08
548.149	-1.08
548.485	-185.08
548.82	-96.08
549.156	382.92
549.492	-143.08
549.827	-30.08
550.163	-192.08
550.498	-127.08
550.834	-180.08
551.17	345.92
551.505	-218.08
551.841	-102.08
552.176	-152.08
552.512	-194.08
552.847	-273.08
553.182	258.92
553.518	-188.08
553.853	-283.08
554.189	-164.08
554.524	-161.08
554.859	-183.08
555.195	-158.08
555.53	-229.08
555.865	-143.08
556.2	-117.08
556.536	-134.08
556.871	-129.08
557.206	-228.08
557.541	-239.08
557.876	-118.08
558.211	-151.08
558.547	-168.08
558.882	-186.08
559.217	-111.08
559.552	-200.08
559.887	-126.08
560.222	-258.08
560.557	-107.08
560.892	-169.08
561.227	-185.08
561.562	-143.08
561.897	-130.08
562.231	-182.08
562.566	-106.08
562.901	-152.08
563.236	-145.08
563.571	-151.08
563.906	-169.08
564.24	-230.08
564.575	-211.08
564.91	-177.08
565.245	-127.08
565.579	-176.08
565.914	-182.08
566.249	166.92
566.583	-155.08
566.918	-233.08
567.252	-174.08
567.587	-167.08
567.922	-282.08
568.256	-246.08
568.591	-159.08
568.925	-100.08
569.26	-65.08
569.594	-149.08
569.928	-98.08
570.263	-179.08
570.597	-107.08
570.932	-104.08
571.266	-110.08
571.6	-72.08
571.935	-251.08
572.269	-176.08
572.603	-167.08
572.937	-123.08
573.272	-46.08
573.606	-210.08
573.94	-175.08
574.274	-220.08
574.608	-110.08
574.943	-136.08
575.277	-222.08
575.611	-177.08
575.945	-174.08
576.279	-160.08
576.613	-80.08
576.947	-214.08
577.281	-146.08
577.615	-315.08
577.949	-157.08
578.283	-114.08
578.617	-135.08
578.951	-170.08
579.285	-113.08
579.618	-181.08
579.952	-210.08
580.286	-171.08
580.62	-117.08
580.954	-244.08
581.287	-109.08
581.621	-144.08
581.955	-74.08
582.289	-162.08
582.622	-138.08
582.956	-127.08
583.29	-159.08
583.623	-246.08
583.957	-124.08
584.29	-201.08
584.624	-249.08
584.957	-165.08
585.291	-206.08
585.625	-198.08
585.958	-198.08
586.291	-203.08
586.625	-130.08
586.958	-102.08
587.292	20.92
587.625	-93.08
587.958	510.92
588.292	-170.08
588.625	-91.08
588.958	-204.08
