Data from wl_500_HR2001601__0__00000.txt Node

Date: Wed Oct 18 18:56:42 CEST 2023
User: isaza
Spectrometer: HR200160
Trigger mode: 0
Integration Time (sec): 1.000000E-1
Scans to average: 1
Electric dark correction enabled: true
Nonlinearity correction enabled: false
Boxcar width: 0
XAxis mode: Wavelengths
Number of Pixels in Spectrum: 2110
>>>>>Begin Spectral Data<<<<<
184.037	112.58
184.393	56.58
184.749	-58.42
185.104	-45.42
185.46	86.58
185.815	-28.42
186.17	84.58
186.526	8.58
186.881	-44.42
187.237	-76.42
187.592	-102.42
187.947	6.58
188.303	-146.42
188.658	-25.42
189.013	81.58
189.369	-48.42
189.724	-116.42
190.079	25.58
190.435	-48.42
190.79	-140.42
191.145	-166.42
191.5	-129.42
191.855	-62.42
192.21	-121.42
192.566	-76.42
192.921	-24.42
193.276	-134.42
193.631	420.58
193.986	-53.42
194.341	-143.42
194.696	-76.42
195.051	-56.42
195.406	-124.42
195.761	308.58
196.116	-62.42
196.471	-82.42
196.826	22.58
197.181	-74.42
197.535	-191.42
197.89	-98.42
198.245	-122.42
198.6	-63.42
198.955	-70.42
199.31	-114.42
199.664	-106.42
200.019	-135.42
200.374	-93.42
200.729	-193.42
201.083	-154.42
201.438	-75.42
201.793	-294.42
202.147	-55.42
202.502	-123.42
202.856	-47.42
203.211	-199.42
203.566	-94.42
203.92	-109.42
204.275	-91.42
204.629	-176.42
204.984	-50.42
205.338	407.58
205.693	-128.42
206.047	-140.42
206.401	-155.42
206.756	-145.42
207.11	-211.42
207.465	-190.42
207.819	67.58
208.173	-124.42
208.528	-203.42
208.882	-205.42
209.236	-53.42
209.591	-186.42
209.945	-133.42
210.299	-19.42
210.653	-123.42
211.007	-97.42
211.362	-170.42
211.716	-82.42
212.07	-153.42
212.424	-160.42
212.778	-215.42
213.132	-154.42
213.486	-147.42
213.84	-213.42
214.194	-150.42
214.548	-151.42
214.902	370.58
215.256	-278.42
215.61	-246.42
215.964	-247.42
216.318	-246.42
216.672	-142.42
217.026	-225.42
217.38	-61.42
217.734	-58.42
218.087	-249.42
218.441	-78.42
218.795	1.58
219.149	-123.42
219.503	-199.42
219.856	-177.42
220.21	-153.42
220.564	-207.42
220.917	-107.42
221.271	-177.42
221.625	-77.42
221.978	-188.42
222.332	-99.42
222.685	-150.42
223.039	286.58
223.393	-145.42
223.746	-255.42
224.1	-194.42
224.453	-274.42
224.807	-217.42
225.16	-175.42
225.514	235.58
225.867	-159.42
226.22	19.58
226.574	-111.42
226.927	-105.42
227.281	350.58
227.634	-214.42
227.987	-147.42
228.341	-164.42
228.694	-155.42
229.047	-226.42
229.4	-225.42
229.754	-283.42
230.107	-130.42
230.46	-247.42
230.813	287.58
231.166	-78.42
231.519	-110.42
231.873	-90.42
232.226	-137.42
232.579	-223.42
232.932	-220.42
233.285	-254.42
233.638	-256.42
233.991	-42.42
234.344	-179.42
234.697	-277.42
235.05	-212.42
235.403	-183.42
235.756	-199.42
236.109	-171.42
236.461	-96.42
236.814	-222.42
237.167	-164.42
237.52	152.58
237.873	-231.42
238.226	-197.42
238.578	-154.42
238.931	-193.42
239.284	-211.42
239.637	-152.42
239.989	-255.42
240.342	-189.42
240.695	-241.42
241.047	-279.42
241.4	-99.42
241.752	-32.42
242.105	-270.42
242.458	-153.42
242.81	-255.42
243.163	-208.42
243.515	-178.42
243.868	-160.42
244.22	-211.42
244.573	-242.42
244.925	-150.42
245.278	-122.42
245.63	-250.42
245.982	-162.42
246.335	-215.42
246.687	-156.42
247.039	-145.42
247.392	-128.42
247.744	-145.42
248.096	-230.42
248.449	-229.42
248.801	-106.42
249.153	-46.42
249.505	-197.42
249.857	-154.42
250.21	59.58
250.562	-217.42
250.914	-158.42
251.266	-326.42
251.618	-195.42
251.97	-287.42
252.322	-228.42
252.674	-263.42
253.026	-205.42
253.378	-221.42
253.73	-154.42
254.082	-56.42
254.434	-212.42
254.786	-254.42
255.138	-193.42
255.49	-155.42
255.842	-203.42
256.194	-160.42
256.546	-235.42
256.897	-255.42
257.249	-224.42
257.601	-240.42
257.953	-165.42
258.305	-131.42
258.656	-124.42
259.008	-271.42
259.36	-123.42
259.711	-198.42
260.063	-182.42
260.415	93.58
260.766	-184.42
261.118	-197.42
261.469	-249.42
261.821	-125.42
262.173	-272.42
262.524	-317.42
262.876	48.58
263.227	-216.42
263.579	-84.42
263.93	-226.42
264.282	-203.42
264.633	-233.42
264.984	-230.42
265.336	-195.42
265.687	-31.42
266.038	-182.42
266.39	-204.42
266.741	-246.42
267.092	-308.42
267.444	-266.42
267.795	-215.42
268.146	-258.42
268.497	-209.42
268.849	-183.42
269.2	-48.42
269.551	-163.42
269.902	-266.42
270.253	-216.42
270.604	-192.42
270.955	-186.42
271.306	-120.42
271.658	-193.42
272.009	-147.42
272.36	-130.42
272.711	-264.42
273.062	-241.42
273.413	-167.42
273.763	-100.42
274.114	-195.42
274.465	-150.42
274.816	-248.42
275.167	-186.42
275.518	-262.42
275.869	-112.42
276.22	-92.42
276.57	-147.42
276.921	-113.42
277.272	-234.42
277.623	743.58
277.973	-120.42
278.324	-188.42
278.675	-81.42
279.025	-310.42
279.376	-154.42
279.727	-216.42
280.077	-170.42
280.428	-249.42
280.778	-165.42
281.129	-215.42
281.48	-290.42
281.83	-180.42
282.181	-242.42
282.531	-207.42
282.882	-259.42
283.232	-125.42
283.582	-110.42
283.933	-184.42
284.283	-299.42
284.634	-175.42
284.984	-211.42
285.334	-289.42
285.685	352.58
286.035	-170.42
286.385	-302.42
286.735	-140.42
287.086	-148.42
287.436	-98.42
287.786	-223.42
288.136	-85.42
288.486	-180.42
288.837	-236.42
289.187	73.58
289.537	-221.42
289.887	232.58
290.237	-224.42
290.587	-217.42
290.937	-179.42
291.287	-160.42
291.637	-277.42
291.987	-148.42
292.337	-266.42
292.687	-245.42
293.037	-141.42
293.387	-201.42
293.737	-92.42
294.087	-57.42
294.437	-268.42
294.786	-135.42
295.136	-271.42
295.486	-169.42
295.836	-239.42
296.186	-206.42
296.535	-195.42
296.885	-294.42
297.235	-253.42
297.584	-117.42
297.934	-158.42
298.284	-193.42
298.633	-198.42
298.983	-207.42
299.333	-178.42
299.682	-166.42
300.032	-259.42
300.381	-174.42
300.731	-184.42
301.08	-209.42
301.43	-195.42
301.779	-98.42
302.129	-217.42
302.478	-238.42
302.828	-176.42
303.177	-298.42
303.526	-235.42
303.876	-19.42
304.225	-306.42
304.574	-196.42
304.924	-295.42
305.273	-119.42
305.622	-209.42
305.971	-128.42
306.321	-168.42
306.67	-273.42
307.019	-211.42
307.368	-252.42
307.717	-267.42
308.066	271.58
308.416	-177.42
308.765	-201.42
309.114	-180.42
309.463	-295.42
309.812	-179.42
310.161	-118.42
310.51	-133.42
310.859	-213.42
311.208	-174.42
311.557	-143.42
311.906	-219.42
312.255	-203.42
312.604	-256.42
312.952	-122.42
313.301	-257.42
313.65	-156.42
313.999	-228.42
314.348	-212.42
314.696	-47.42
315.045	-170.42
315.394	-184.42
315.743	-196.42
316.091	-184.42
316.44	-231.42
316.789	-193.42
317.137	-244.42
317.486	-153.42
317.835	-275.42
318.183	420.58
318.532	-159.42
318.88	-207.42
319.229	-38.42
319.577	-213.42
319.926	-136.42
320.274	-244.42
320.623	-253.42
320.971	-167.42
321.32	-186.42
321.668	-234.42
322.017	-185.42
322.365	-203.42
322.713	-186.42
323.062	-42.42
323.41	-158.42
323.758	-167.42
324.107	-186.42
324.455	-243.42
324.803	-239.42
325.151	-342.42
325.499	-234.42
325.848	-215.42
326.196	-219.42
326.544	-123.42
326.892	-153.42
327.24	-148.42
327.588	-282.42
327.936	-107.42
328.284	-133.42
328.632	-97.42
328.98	-189.42
329.328	-272.42
329.676	-33.42
330.024	-202.42
330.372	-245.42
330.72	-203.42
331.068	-169.42
331.416	-134.42
331.764	-247.42
332.112	-244.42
332.46	-143.42
332.807	-261.42
333.155	-215.42
333.503	-237.42
333.851	4.58
334.198	-253.42
334.546	-293.42
334.894	-226.42
335.242	-224.42
335.589	-227.42
335.937	-182.42
336.285	-225.42
336.632	-240.42
336.98	-179.42
337.327	-203.42
337.675	-144.42
338.022	-305.42
338.37	-70.42
338.717	-298.42
339.065	-236.42
339.412	-186.42
339.76	71.58
340.107	-4.42
340.455	-171.42
340.802	-222.42
341.149	-232.42
341.497	-239.42
341.844	-287.42
342.191	-46.42
342.539	-202.42
342.886	-150.42
343.233	-211.42
343.58	-128.42
343.928	-142.42
344.275	-150.42
344.622	-253.42
344.969	-188.42
345.316	-212.42
345.663	-320.42
346.01	-164.42
346.358	-144.42
346.705	-309.42
347.052	134.58
347.399	-145.42
347.746	-137.42
348.093	-28.42
348.44	-155.42
348.787	-135.42
349.134	-147.42
349.48	-160.42
349.827	-170.42
350.174	-297.42
350.521	-120.42
350.868	-219.42
351.215	-150.42
351.562	-168.42
351.908	-248.42
352.255	-188.42
352.602	-134.42
352.949	-218.42
353.295	-173.42
353.642	-266.42
353.989	-172.42
354.335	-190.42
354.682	-272.42
355.029	-194.42
355.375	-273.42
355.722	-147.42
356.068	-246.42
356.415	-203.42
356.761	-242.42
357.108	-155.42
357.454	-118.42
357.801	-184.42
358.147	-191.42
358.494	-189.42
358.84	-286.42
359.186	-6.42
359.533	-76.42
359.879	-237.42
360.225	-176.42
360.572	-190.42
360.918	-147.42
361.264	-266.42
361.611	-225.42
361.957	-145.42
362.303	-75.42
362.649	-244.42
362.995	-209.42
363.342	-189.42
363.688	-64.42
364.034	-195.42
364.38	-281.42
364.726	-213.42
365.072	-224.42
365.418	-139.42
365.764	-125.42
366.11	-203.42
366.456	-211.42
366.802	-201.42
367.148	-252.42
367.494	-268.42
367.84	248.58
368.186	-310.42
368.532	-240.42
368.878	-153.42
369.224	-239.42
369.569	-138.42
369.915	-237.42
370.261	-303.42
370.607	-128.42
370.952	-253.42
371.298	-247.42
371.644	-225.42
371.99	-190.42
372.335	207.58
372.681	-208.42
373.027	-201.42
373.372	-102.42
373.718	-133.42
374.063	-83.42
374.409	-104.42
374.754	-208.42
375.1	-243.42
375.445	-140.42
375.791	-139.42
376.136	-182.42
376.482	-117.42
376.827	-130.42
377.173	-167.42
377.518	-75.42
377.863	-167.42
378.209	-198.42
378.554	-192.42
378.899	-157.42
379.245	-156.42
379.59	-256.42
379.935	-184.42
380.281	-229.42
380.626	-225.42
380.971	-105.42
381.316	-259.42
381.661	-249.42
382.006	-208.42
382.352	-157.42
382.697	-212.42
383.042	-149.42
383.387	-186.42
383.732	-188.42
384.077	-153.42
384.422	-267.42
384.767	-180.42
385.112	-175.42
385.457	-214.42
385.802	-231.42
386.147	-168.42
386.492	-260.42
386.836	-170.42
387.181	-248.42
387.526	23.58
387.871	-127.42
388.216	-173.42
388.561	-106.42
388.905	-52.42
389.25	-151.42
389.595	-135.42
389.94	-189.42
390.284	-126.42
390.629	-84.42
390.974	-160.42
391.318	-176.42
391.663	-169.42
392.007	-82.42
392.352	-226.42
392.697	-181.42
393.041	-187.42
393.386	-242.42
393.73	-260.42
394.075	-168.42
394.419	-167.42
394.763	-194.42
395.108	-219.42
395.452	-228.42
395.797	-133.42
396.141	-200.42
396.485	-231.42
396.83	-260.42
397.174	-143.42
397.518	-236.42
397.863	153.58
398.207	-168.42
398.551	-100.42
398.895	-191.42
399.24	17.58
399.584	-238.42
399.928	-177.42
400.272	-230.42
400.616	-222.42
400.96	-140.42
401.304	-220.42
401.648	-171.42
401.992	-141.42
402.336	-211.42
402.68	-234.42
403.024	513.58
403.368	-208.42
403.712	-215.42
404.056	-225.42
404.4	-197.42
404.744	-112.42
405.088	140.58
405.432	-200.42
405.776	-278.42
406.119	-215.42
406.463	-134.42
406.807	-236.42
407.151	263.58
407.495	-184.42
407.838	-256.42
408.182	-169.42
408.526	473.58
408.869	-124.42
409.213	-142.42
409.557	-236.42
409.9	-251.42
410.244	-143.42
410.587	-191.42
410.931	-168.42
411.274	-256.42
411.618	-97.42
411.961	-185.42
412.305	-101.42
412.648	-187.42
412.992	-116.42
413.335	-236.42
413.679	-274.42
414.022	13.58
414.365	-117.42
414.709	-214.42
415.052	-192.42
415.395	-182.42
415.739	-260.42
416.082	-309.42
416.425	-234.42
416.768	29.58
417.112	-181.42
417.455	-238.42
417.798	-146.42
418.141	-227.42
418.484	-181.42
418.827	-295.42
419.17	124.58
419.513	-210.42
419.857	-228.42
420.2	-192.42
420.543	-286.42
420.886	-180.42
421.229	-123.42
421.572	-129.42
421.914	-258.42
422.257	-278.42
422.6	-187.42
422.943	332.58
423.286	-228.42
423.629	-143.42
423.972	-228.42
424.315	-206.42
424.657	-160.42
425	-232.42
425.343	-216.42
425.686	-194.42
426.028	-211.42
426.371	-234.42
426.714	-66.42
427.056	-156.42
427.399	-152.42
427.742	-125.42
428.084	-150.42
428.427	-180.42
428.769	-223.42
429.112	-261.42
429.454	-181.42
429.797	-361.42
430.139	-185.42
430.482	-213.42
430.824	-125.42
431.167	-173.42
431.509	-225.42
431.851	-213.42
432.194	-101.42
432.536	-176.42
432.878	-64.42
433.221	238.58
433.563	-56.42
433.905	-155.42
434.248	-121.42
434.59	-152.42
434.932	-230.42
435.274	-68.42
435.616	-244.42
435.959	-90.42
436.301	-200.42
436.643	-305.42
436.985	-245.42
437.327	-201.42
437.669	-341.42
438.011	-160.42
438.353	-115.42
438.695	-191.42
439.037	-208.42
439.379	-174.42
439.721	-280.42
440.063	-241.42
440.405	-282.42
440.747	-241.42
441.089	-148.42
441.43	-286.42
441.772	-172.42
442.114	-175.42
442.456	-170.42
442.798	-160.42
443.139	-263.42
443.481	-152.42
443.823	391.58
444.165	-206.42
444.506	-207.42
444.848	-231.42
445.19	-164.42
445.531	-142.42
445.873	-259.42
446.214	-152.42
446.556	-233.42
446.897	-153.42
447.239	-196.42
447.58	-236.42
447.922	-148.42
448.263	368.58
448.605	-152.42
448.946	-204.42
449.288	-198.42
449.629	-230.42
449.97	-233.42
450.312	-243.42
450.653	-175.42
450.994	-118.42
451.336	-157.42
451.677	-103.42
452.018	-236.42
452.359	-311.42
452.701	-214.42
453.042	-285.42
453.383	-211.42
453.724	-251.42
454.065	-187.42
454.406	-254.42
454.748	-235.42
455.089	-253.42
455.43	-140.42
455.771	-24.42
456.112	-190.42
456.453	-299.42
456.794	-181.42
457.135	-108.42
457.476	-262.42
457.817	-244.42
458.158	-188.42
458.498	-179.42
458.839	-161.42
459.18	-257.42
459.521	-64.42
459.862	-6.42
460.203	-133.42
460.543	207.58
460.884	-217.42
461.225	204.58
461.566	-207.42
461.906	-114.42
462.247	-189.42
462.588	-249.42
462.928	72.58
463.269	-159.42
463.609	-221.42
463.95	-168.42
464.291	-240.42
464.631	-248.42
464.972	-110.42
465.312	-134.42
465.653	-224.42
465.993	-138.42
466.333	-50.42
466.674	-170.42
467.014	-202.42
467.355	-232.42
467.695	-211.42
468.035	-265.42
468.376	6.58
468.716	-176.42
469.056	-109.42
469.397	-182.42
469.737	-250.42
470.077	-186.42
470.417	-210.42
470.757	-248.42
471.098	-201.42
471.438	-185.42
471.778	-268.42
472.118	518.58
472.458	-131.42
472.798	-268.42
473.138	-237.42
473.478	-239.42
473.818	-182.42
474.158	-173.42
474.498	-218.42
474.838	-99.42
475.178	-259.42
475.518	-112.42
475.858	-200.42
476.198	-116.42
476.538	-129.42
476.878	-249.42
477.217	-183.42
477.557	66.58
477.897	-319.42
478.237	-133.42
478.577	-259.42
478.916	-185.42
479.256	-179.42
479.596	-189.42
479.935	-251.42
480.275	-219.42
480.615	222.58
480.954	-89.42
481.294	-271.42
481.633	-169.42
481.973	-170.42
482.313	-166.42
482.652	-141.42
482.992	-239.42
483.331	-209.42
483.67	-210.42
484.01	500.58
484.349	-207.42
484.689	-194.42
485.028	-155.42
485.367	92.58
485.707	-208.42
486.046	-245.42
486.385	-135.42
486.725	-147.42
487.064	-146.42
487.403	-125.42
487.742	-202.42
488.082	-193.42
488.421	-100.42
488.76	-96.42
489.099	-136.42
489.438	-191.42
489.777	-56.42
490.116	-188.42
490.456	-159.42
490.795	79.58
491.134	-249.42
491.473	-160.42
491.812	-197.42
492.151	-208.42
492.49	-255.42
492.828	-155.42
493.167	-63.42
493.506	-143.42
493.845	-244.42
494.184	-47.42
494.523	-41.42
494.862	-148.42
495.2	-64.42
495.539	-75.42
495.878	-78.42
496.217	28.58
496.555	97.58
496.894	278.58
497.233	532.58
497.571	979.58
497.91	1524.58
498.249	2417.58
498.587	3987.58
498.926	5913.58
499.264	8344.58
499.603	11452.58
499.942	15213.58
500.28	17468.58
500.619	20232.58
500.957	23128.58
501.295	24014.58
501.634	25392.58
501.972	24513.58
502.311	22718.58
502.649	19546.58
502.987	17190.58
503.326	15149.58
503.664	11573.58
504.002	8714.58
504.341	6053.58
504.679	3947.58
505.017	2460.58
505.355	1422.58
505.693	825.58
506.032	595.58
506.37	49.58
506.708	-193.42
507.046	-125.42
507.384	-206.42
507.722	-177.42
508.06	-31.42
508.398	-212.42
508.736	-134.42
509.074	24.58
509.412	-114.42
509.75	-241.42
510.088	-96.42
510.426	-224.42
510.764	-62.42
511.102	-147.42
511.44	-128.42
511.778	-169.42
512.115	-99.42
512.453	-209.42
512.791	-193.42
513.129	-70.42
513.466	-168.42
513.804	-128.42
514.142	-132.42
514.48	-214.42
514.817	-142.42
515.155	-202.42
515.493	-292.42
515.83	-158.42
516.168	-157.42
516.505	-180.42
516.843	-186.42
517.18	-236.42
517.518	-145.42
517.855	-161.42
518.193	-172.42
518.53	-210.42
518.868	-167.42
519.205	-193.42
519.542	-242.42
519.88	-172.42
520.217	-186.42
520.555	-275.42
520.892	-218.42
521.229	-224.42
521.566	-288.42
521.904	-106.42
522.241	-262.42
522.578	-235.42
522.915	-177.42
523.252	-171.42
523.59	-147.42
523.927	-183.42
524.264	-122.42
524.601	-191.42
524.938	-103.42
525.275	-132.42
525.612	-134.42
525.949	-91.42
526.286	-268.42
526.623	-200.42
526.96	-166.42
527.297	-175.42
527.634	-164.42
527.971	-143.42
528.308	1.58
528.645	-126.42
528.981	-144.42
529.318	-251.42
529.655	-179.42
529.992	-162.42
530.329	-265.42
530.665	-263.42
531.002	-258.42
531.339	229.58
531.675	-270.42
532.012	-135.42
532.349	-276.42
532.685	-224.42
533.022	-265.42
533.359	-258.42
533.695	-212.42
534.032	-186.42
534.368	-185.42
534.705	-92.42
535.041	-177.42
535.378	-234.42
535.714	-158.42
536.051	89.58
536.387	-136.42
536.723	-194.42
537.06	-256.42
537.396	-245.42
537.732	-164.42
538.069	-272.42
538.405	-209.42
538.741	-145.42
539.078	-185.42
539.414	-101.42
539.75	-109.42
540.086	-140.42
540.422	-202.42
540.759	-138.42
541.095	-177.42
541.431	-161.42
541.767	-208.42
542.103	-231.42
542.439	-165.42
542.775	-223.42
543.111	-172.42
543.447	-156.42
543.783	-215.42
544.119	-210.42
544.455	-153.42
544.791	-217.42
545.127	-152.42
545.463	-12.42
545.799	-76.42
546.134	-235.42
546.47	-280.42
546.806	-241.42
547.142	-202.42
547.477	-156.42
547.813	-206.42
548.149	-72.42
548.485	-272.42
548.82	-190.42
549.156	356.58
549.492	-187.42
549.827	-12.42
550.163	-233.42
550.498	-158.42
550.834	-252.42
551.17	367.58
551.505	-252.42
551.841	-158.42
552.176	-202.42
552.512	-212.42
552.847	-264.42
553.182	248.58
553.518	-133.42
553.853	-277.42
554.189	-172.42
554.524	-168.42
554.859	-152.42
555.195	-193.42
555.53	-229.42
555.865	-154.42
556.2	-176.42
556.536	-197.42
556.871	-177.42
557.206	-256.42
557.541	-237.42
557.876	-96.42
558.211	-156.42
558.547	-211.42
558.882	-206.42
559.217	-126.42
559.552	-180.42
559.887	-152.42
560.222	-254.42
560.557	-167.42
560.892	-201.42
561.227	-179.42
561.562	-192.42
561.897	-154.42
562.231	-203.42
562.566	-131.42
562.901	-146.42
563.236	-153.42
563.571	-139.42
563.906	-162.42
564.24	-277.42
564.575	-198.42
564.91	-202.42
565.245	-117.42
565.579	-240.42
565.914	-182.42
566.249	147.58
566.583	-190.42
566.918	-219.42
567.252	-173.42
567.587	-184.42
567.922	-268.42
568.256	-293.42
568.591	-163.42
568.925	-101.42
569.26	-74.42
569.594	-122.42
569.928	-88.42
570.263	-173.42
570.597	-111.42
570.932	-132.42
571.266	-182.42
571.6	-161.42
571.935	-267.42
572.269	-173.42
572.603	-226.42
572.937	-131.42
573.272	-72.42
573.606	-185.42
573.94	-157.42
574.274	-234.42
574.608	-80.42
574.943	-168.42
575.277	-215.42
575.611	-140.42
575.945	-214.42
576.279	-212.42
576.613	-126.42
576.947	-240.42
577.281	-156.42
577.615	-272.42
577.949	-184.42
578.283	-145.42
578.617	-84.42
578.951	-152.42
579.285	-126.42
579.618	-154.42
579.952	-188.42
580.286	-180.42
580.62	-117.42
580.954	-246.42
581.287	-144.42
581.621	-168.42
581.955	-144.42
582.289	-146.42
582.622	-138.42
582.956	-152.42
583.29	-197.42
583.623	-224.42
583.957	-146.42
584.29	-152.42
584.624	-219.42
584.957	-129.42
585.291	-186.42
585.625	-164.42
585.958	-177.42
586.291	-203.42
586.625	-181.42
586.958	-96.42
587.292	-26.42
587.625	-113.42
587.958	550.58
588.292	-163.42
